GENios;   Serial number: 12900400814;   Firmware: V 6.02 16_06_2004 Genios;   XFLUOR4 Version: V 4.51						
Date:					28/7/07	
Time:					14:02	

Comment to this measurement:					YJM789 BY4741 Y06913 MnCl2 conc. growth 30C	
Measurement mode:					Absorbance	
Measurement wavelength:					595	nm
Number of flashes:					3	
Plate definition file:					NUNC48rdft.pdf	
Number of kinetic cycles:					100	
Kinetic interval (Minimal):					1032	s
Valid temparature range:					29 - 31	°C
Shake duration between cycles (Orbital High):					1000	s
Target Temperature:					30	°C
Current Temperature:					30	°C

Rawdata					Temperature: 29.8 °C																																													
Cycle No.	Time	Temp.	A1	B1	C1	D1	E1	F1	A2	B2	C2	D2	E2	F2	A3	B3	C3	D3	E3	F3	A4	B4	C4	D4	E4	F4	A5	B5	C5	D5	E5	F5	A6	B6	C6	D6	E6	F6	A7	B7	C7	D7	E7	F7	A8	B8	C8	D8	E8	F8
1	0	29.8	0.0659	0.0644	0.0642	0.0652	0.0675	0.0686	0.1121	0.1040	0.1236	0.1261	0.1111	0.1045	0.1393	0.1372	0.1628	0.1614	0.1576	0.1537	0.1040	0.1188	0.1339	0.1368	0.1208	0.1131	0.0952	0.1124	0.1029	0.1164	0.0897	0.1025	0.1251	0.1317	0.1571	0.1366	0.1344	0.1336	0.0993	0.1134	0.1150	0.1228	0.1003	0.0905	0.1045	0.0788	0.0788	0.1079	0.0745	0.1177
2	1033	29.8	0.0661	0.0639	0.0640	0.0652	0.0672	0.0676	0.2218	0.1690	0.2086	0.2168	0.1970	0.1385	0.1845	0.1865	0.2130	0.2103	0.1936	0.1792	0.1894	0.1697	0.2050	0.2293	0.1575	0.1444	0.1390	0.1556	0.1729	0.1392	0.1364	0.1566	0.1522	0.1862	0.2088	0.1872	0.1741	0.1577	0.1269	0.1574	0.1689	0.1498	0.1681	0.1268	0.1052	0.0786	0.0790	0.1078	0.0747	0.0801
3	2066	29.9	0.0658	0.0635	0.0638	0.0643	0.0673	0.0670	0.2680	0.2367	0.2288	0.2086	0.2016	0.1391	0.1812	0.2288	0.2522	0.2092	0.2295	0.1955	0.2717	0.1876	0.2394	0.1783	0.1630	0.1385	0.1547	0.2043	0.1803	0.1473	0.1356	0.1439	0.1807	0.2107	0.2254	0.2086	0.1670	0.1706	0.1440	0.1977	0.1961	0.1645	0.1424	0.1257	0.1049	0.0779	0.0794	0.1086	0.0743	0.0788
4	3099	29.9	0.0654	0.0632	0.0632	0.0645	0.0666	0.0678	0.3016	0.2272	0.2112	0.1909	0.2083	0.1318	0.1807	0.2133	0.2853	0.2210	0.2642	0.1818	0.2654	0.2239	0.2577	0.1891	0.1590	0.1357	0.1609	0.2239	0.2130	0.1504	0.1349	0.1396	0.1972	0.2230	0.3341	0.2007	0.1888	0.1704	0.1391	0.2067	0.1994	0.1510	0.1681	0.1398	0.1042	0.0776	0.0791	0.1078	0.0744	0.0790
5	4132	30.0	0.0655	0.0628	0.0632	0.0637	0.0669	0.0669	0.2424	0.1898	0.2306	0.1844	0.1739	0.1289	0.2436	0.2054	0.3385	0.2235	0.2428	0.1788	0.2168	0.2059	0.2388	0.1822	0.1601	0.1330	0.1724	0.3249	0.2186	0.1597	0.1385	0.1412	0.2320	0.2434	0.3502	0.1991	0.1961	0.1533	0.1352	0.1821	0.2030	0.1552	0.1668	0.1423	0.1045	0.0776	0.0786	0.1077	0.0757	0.0781
6	5164	30.1	0.0657	0.0625	0.0626	0.0636	0.0660	0.0675	0.2049	0.1849	0.2437	0.1867	0.1708	0.1316	0.2543	0.1945	0.2944	0.2168	0.2861	0.1882	0.1968	0.1858	0.2706	0.1893	0.1608	0.1350	0.1930	0.2235	0.2265	0.1741	0.1391	0.1413	0.2208	0.2633	0.2995	0.2090	0.1891	0.1738	0.1341	0.1907	0.2265	0.1778	0.1477	0.1325	0.1044	0.0782	0.0787	0.1090	0.0739	0.0796
7	6197	29.9	0.0660	0.0630	0.0629	0.0641	0.0660	0.0671	0.1903	0.1952	0.2372	0.1829	0.1727	0.1365	0.2596	0.2476	0.2993	0.2299	0.2810	0.1765	0.1820	0.1789	0.2775	0.1984	0.1599	0.1406	0.2012	0.2154	0.2313	0.1812	0.1568	0.1412	0.2623	0.2884	0.3116	0.2181	0.1829	0.1844	0.1386	0.2089	0.2067	0.1817	0.1787	0.1462	0.1048	0.0768	0.0784	0.1070	0.0740	0.0801
8	7230	29.9	0.0663	0.0630	0.0626	0.0643	0.0669	0.0675	0.1895	0.1921	0.2475	0.1941	0.1694	0.1357	0.2842	0.2182	0.2962	0.2407	0.2282	0.2041	0.2087	0.1781	0.2687	0.1976	0.1665	0.1371	0.2310	0.2271	0.2378	0.1965	0.1888	0.1494	0.2819	0.2959	0.3581	0.2495	0.1966	0.1841	0.1396	0.2092	0.2194	0.1604	0.1805	0.1354	0.1042	0.0789	0.0784	0.1083	0.0770	0.0785
9	8263	29.9	0.0653	0.0628	0.0635	0.0638	0.0664	0.0672	0.1848	0.1988	0.2547	0.1932	0.1685	0.1394	0.2504	0.2424	0.3125	0.2501	0.2367	0.1787	0.1779	0.1813	0.2525	0.1946	0.1649	0.1386	0.2158	0.2129	0.2321	0.1849	0.1952	0.1526	0.2730	0.2853	0.4203	0.2277	0.1935	0.1867	0.1373	0.2024	0.2057	0.1670	0.1574	0.1465	0.1041	0.0767	0.0799	0.1084	0.0744	0.0787
10	9296	30.0	0.0659	0.0632	0.0629	0.0637	0.0662	0.0671	0.1892	0.1866	0.2482	0.1986	0.1756	0.1396	0.2442	0.2092	0.3133	0.2379	0.2215	0.1832	0.2017	0.1864	0.2677	0.2046	0.1671	0.1517	0.2125	0.2166	0.2409	0.1891	0.2139	0.1688	0.2760	0.3193	0.3690	0.2571	0.2268	0.1987	0.1412	0.1991	0.2270	0.1732	0.1558	0.1399	0.1047	0.0776	0.0792	0.1081	0.0745	0.0789
11	10329	29.9	0.0656	0.0631	0.0627	0.0636	0.0668	0.0677	0.1825	0.2007	0.2622	0.2079	0.1766	0.1422	0.2820	0.2253	0.3187	0.2520	0.2552	0.1902	0.1989	0.1843	0.2856	0.1993	0.1689	0.1429	0.2220	0.2286	0.2539	0.1962	0.2251	0.1862	0.2823	0.3163	0.4221	0.2478	0.2386	0.2004	0.1463	0.1896	0.2416	0.1803	0.1741	0.1431	0.1040	0.0783	0.0784	0.1079	0.0740	0.0789
12	11361	29.9	0.0662	0.0632	0.0629	0.0644	0.0666	0.0672	0.1944	0.2208	0.2785	0.2341	0.1926	0.1453	0.2918	0.2231	0.3490	0.2544	0.2370	0.1907	0.1977	0.1852	0.2602	0.2088	0.1770	0.1553	0.2476	0.2572	0.2734	0.2134	0.2556	0.2121	0.3141	0.3282	0.4399	0.2513	0.2235	0.2364	0.1442	0.1976	0.2524	0.1808	0.1717	0.1465	0.1043	0.0784	0.0780	0.1065	0.0766	0.0795
13	12394	30.3	0.0659	0.0629	0.0633	0.0644	0.0665	0.0670	0.1893	0.2528	0.3021	0.2533	0.2042	0.1487	0.3116	0.2153	0.3547	0.2523	0.2731	0.2037	0.1939	0.1853	0.2882	0.2145	0.1808	0.1487	0.2623	0.2358	0.2877	0.2063	0.2372	0.2379	0.3194	0.3454	0.4583	0.2690	0.2283	0.2381	0.1464	0.1998	0.2544	0.1981	0.1713	0.1546	0.1040	0.0772	0.0786	0.1082	0.0740	0.0779
14	13427	30.0	0.0662	0.0625	0.0633	0.0640	0.0662	0.0674	0.1922	0.2602	0.2890	0.2494	0.2164	0.1532	0.3029	0.2494	0.3426	0.2699	0.2631	0.2026	0.1823	0.1725	0.2473	0.2219	0.1782	0.1512	0.2709	0.2654	0.2989	0.2298	0.2650	0.2413	0.3420	0.3472	0.4534	0.2704	0.2449	0.2425	0.1487	0.2117	0.2383	0.2129	0.1819	0.1511	0.1043	0.0771	0.0790	0.1075	0.0746	0.0791
15	14460	29.9	0.0663	0.0631	0.0630	0.0639	0.0665	0.0674	0.2086	0.2422	0.2873	0.2322	0.2060	0.1560	0.3300	0.2432	0.3479	0.2961	0.2489	0.2154	0.1934	0.1941	0.2670	0.2222	0.1852	0.1557	0.2348	0.2590	0.3103	0.2100	0.2240	0.2417	0.3405	0.3473	0.4534	0.2767	0.2792	0.2272	0.1560	0.2232	0.2667	0.2244	0.1916	0.1561	0.1048	0.0772	0.0791	0.1069	0.0744	0.0788
16	15493	30.0	0.0664	0.0628	0.0630	0.0642	0.0665	0.0677	0.2008	0.2562	0.3117	0.2452	0.2196	0.1699	0.3533	0.2533	0.3939	0.2792	0.2704	0.2192	0.1912	0.1922	0.2852	0.2254	0.1916	0.1573	0.2754	0.3030	0.3624	0.2431	0.2760	0.2873	0.3611	0.3822	0.4975	0.2965	0.2681	0.2694	0.1584	0.2256	0.2660	0.2095	0.2271	0.1662	0.1044	0.0768	0.0789	0.1072	0.0752	0.0803
17	16525	30.3	0.0666	0.0626	0.0635	0.0641	0.0664	0.0671	0.1974	0.2961	0.3393	0.2547	0.2369	0.1824	0.3754	0.2503	0.4079	0.2955	0.2689	0.2272	0.2000	0.1889	0.2885	0.2411	0.1929	0.1612	0.2539	0.3312	0.3797	0.2409	0.2958	0.2999	0.3940	0.4090	0.5412	0.3227	0.2979	0.2753	0.1629	0.2209	0.2716	0.2297	0.2093	0.1660	0.1048	0.0779	0.0811	0.1070	0.0741	0.0780
18	17558	30.0	0.0648	0.0626	0.0629	0.0639	0.0668	0.0676	0.2015	0.2863	0.3215	0.2566	0.2469	0.1906	0.3482	0.2451	0.3960	0.3118	0.2832	0.2316	0.1962	0.1983	0.2937	0.2410	0.2014	0.1696	0.2849	0.3567	0.3812	0.2472	0.2888	0.2785	0.3814	0.3865	0.5204	0.3223	0.2804	0.2595	0.1693	0.2329	0.2855	0.2520	0.2271	0.1680	0.1044	0.0778	0.0786	0.1077	0.0764	0.0788
19	18591	30.0	0.0662	0.0629	0.0628	0.0644	0.0663	0.0670	0.2202	0.3244	0.3455	0.2681	0.2455	0.2055	0.4008	0.2576	0.4443	0.3222	0.3089	0.2370	0.2042	0.1974	0.2938	0.2534	0.2054	0.1721	0.2823	0.4010	0.4194	0.2653	0.3044	0.3256	0.3937	0.3946	0.5173	0.3309	0.3426	0.2854	0.1752	0.2378	0.2946	0.2501	0.2388	0.1881	0.1044	0.0771	0.0796	0.1111	0.0734	0.0771
20	19624	29.8	0.0659	0.0629	0.0633	0.0639	0.0663	0.0675	0.2214	0.3121	0.3554	0.2805	0.2415	0.2141	0.3947	0.2867	0.4248	0.3262	0.2811	0.2916	0.2124	0.2205	0.3074	0.2572	0.2093	0.1753	0.2957	0.3948	0.4339	0.2682	0.3106	0.3010	0.3771	0.3888	0.5360	0.3173	0.3036	0.2781	0.1786	0.2599	0.3128	0.2441	0.2183	0.1807	0.1042	0.0778	0.0790	0.1081	0.0737	0.0785
21	20657	30.0	0.0661	0.0627	0.0630	0.0639	0.0665	0.0671	0.2116	0.3299	0.3663	0.2824	0.2500	0.2293	0.4279	0.2524	0.4779	0.3421	0.2927	0.2697	0.2089	0.1988	0.3040	0.2616	0.2153	0.1802	0.3098	0.4394	0.4732	0.2915	0.3341	0.3303	0.3861	0.3843	0.5700	0.3363	0.3266	0.3032	0.1829	0.2567	0.3054	0.2813	0.2372	0.1984	0.1042	0.0778	0.0797	0.1069	0.0736	0.0803
22	21690	30.0	0.0659	0.0630	0.0629	0.0635	0.0661	0.0675	0.2232	0.3259	0.3626	0.2968	0.2513	0.2312	0.4166	0.2583	0.4727	0.3598	0.3009	0.2498	0.2256	0.2029	0.3016	0.2630	0.2227	0.1802	0.3172	0.4282	0.4487	0.2890	0.3116	0.3059	0.4000	0.3631	0.5986	0.3577	0.3511	0.3060	0.1866	0.2553	0.3146	0.2527	0.2521	0.1924	0.1046	0.0775	0.0797	0.1065	0.0748	0.0794
23	22722	30.0	0.0659	0.0625	0.0635	0.0643	0.0657	0.0673	0.2341	0.3736	0.4099	0.3524	0.2896	0.2630	0.4644	0.3022	0.5246	0.3558	0.3554	0.2822	0.2342	0.2128	0.3182	0.2781	0.2320	0.2073	0.3462	0.4840	0.5303	0.3220	0.3752	0.3661	0.4157	0.3706	0.6395	0.3649	0.3484	0.3493	0.1937	0.2720	0.3256	0.2667	0.2561	0.1976	0.1042	0.0774	0.0791	0.1069	0.0744	0.0794
24	23755	30.0	0.0666	0.0623	0.0626	0.0641	0.0662	0.0671	0.2304	0.3766	0.4130	0.3575	0.2789	0.2734	0.4819	0.2753	0.5154	0.3537	0.3539	0.3150	0.2355	0.2208	0.3196	0.2953	0.2365	0.2048	0.3512	0.4766	0.5195	0.3146	0.3663	0.3527	0.4218	0.3938	0.6448	0.3630	0.3688	0.3539	0.2023	0.2894	0.3384	0.2861	0.2632	0.2095	0.1048	0.0779	0.0792	0.1076	0.0731	0.0808
25	24788	30.0	0.0664	0.0627	0.0631	0.0647	0.0667	0.0672	0.2577	0.3957	0.4286	0.3732	0.2926	0.2830	0.4959	0.3133	0.5887	0.3998	0.3662	0.3072	0.2394	0.2280	0.3458	0.3004	0.2359	0.2023	0.3680	0.5296	0.5415	0.3338	0.3799	0.3573	0.4270	0.3760	0.7050	0.3862	0.4539	0.3509	0.2174	0.3116	0.3753	0.3093	0.2708	0.2176	0.1045	0.0774	0.0784	0.1070	0.0757	0.0786
26	25821	30.0	0.0662	0.0630	0.0630	0.0637	0.0662	0.0670	0.2439	0.3794	0.4425	0.3567	0.2907	0.2819	0.5255	0.3013	0.5882	0.3771	0.3377	0.3179	0.2630	0.2247	0.3404	0.3070	0.2375	0.2154	0.3730	0.5113	0.5231	0.3286	0.3760	0.3759	0.4113	0.4070	0.6588	0.3622	0.4258	0.3717	0.2191	0.2985	0.3604	0.3081	0.2930	0.2280	0.1046	0.0769	0.0786	0.1104	0.0744	0.0797
27	26854	30.0	0.0667	0.0626	0.0631	0.0640	0.0661	0.0681	0.2635	0.4184	0.5101	0.4053	0.3035	0.3144	0.5407	0.3201	0.6329	0.4129	0.3694	0.3747	0.2567	0.2450	0.3564	0.3209	0.2526	0.2230	0.4142	0.5825	0.5813	0.3829	0.3952	0.3814	0.4314	0.4533	0.7333	0.3852	0.4085	0.3822	0.2302	0.3225	0.3842	0.3137	0.2849	0.2433	0.1037	0.0775	0.0808	0.1074	0.0744	0.0780
28	27887	30.0	0.0658	0.0627	0.0626	0.0637	0.0662	0.0667	0.2630	0.4051	0.5253	0.4018	0.3045	0.3066	0.5687	0.3162	0.6480	0.4213	0.3664	0.3724	0.2550	0.2446	0.3615	0.3309	0.2562	0.2232	0.4214	0.5706	0.5719	0.3712	0.3917	0.3904	0.4201	0.4089	0.7332	0.3890	0.4249	0.3839	0.2334	0.3224	0.3972	0.3245	0.3114	0.2445	0.1043	0.0778	0.0787	0.1069	0.0739	0.0795
29	28920	30.0	0.0659	0.0627	0.0635	0.0640	0.0665	0.0672	0.2756	0.4063	0.5245	0.3924	0.3098	0.3192	0.5991	0.3339	0.6794	0.4278	0.4042	0.4131	0.2688	0.2610	0.3746	0.3425	0.2633	0.2371	0.4357	0.5679	0.5920	0.3857	0.4403	0.4266	0.4214	0.4080	0.7299	0.4057	0.4781	0.4181	0.2462	0.3397	0.4245	0.3251	0.3158	0.2576	0.1054	0.0775	0.0795	0.1059	0.0740	0.0804
30	29952	30.0	0.0665	0.0622	0.0631	0.0640	0.0663	0.0675	0.2794	0.4210	0.5574	0.4134	0.3120	0.3247	0.6371	0.3490	0.7217	0.4417	0.4126	0.4678	0.2914	0.2727	0.3965	0.3621	0.2786	0.2367	0.4410	0.5809	0.6086	0.3978	0.4114	0.3814	0.3970	0.4265	0.7496	0.3998	0.4579	0.4217	0.2572	0.3548	0.4425	0.3435	0.3256	0.2701	0.1042	0.0775	0.0790	0.1069	0.0746	0.0784
31	30985	30.0	0.0665	0.0628	0.0645	0.0639	0.0664	0.0672	0.2890	0.4348	0.5574	0.4072	0.3110	0.3294	0.6971	0.3613	0.7133	0.4564	0.4101	0.4771	0.2830	0.2743	0.4082	0.3736	0.2821	0.2486	0.4373	0.5831	0.6071	0.3785	0.4284	0.4227	0.4092	0.4282	0.7216	0.4030	0.4968	0.4418	0.2715	0.3779	0.4605	0.3565	0.3449	0.2808	0.1044	0.0767	0.0788	0.1076	0.0744	0.0801
32	32018	30.0	0.0660	0.0630	0.0642	0.0641	0.0666	0.0672	0.3031	0.4657	0.6149	0.4511	0.3358	0.3621	0.7933	0.3707	0.8119	0.4834	0.4544	0.5282	0.3093	0.2898	0.4304	0.3893	0.2940	0.2664	0.5030	0.6530	0.6709	0.4309	0.4858	0.4842	0.4489	0.4522	0.7627	0.4340	0.4913	0.4962	0.2852	0.3971	0.4874	0.3656	0.3619	0.3009	0.1045	0.0776	0.0792	0.1079	0.0749	0.0782
33	33051	30.2	0.0664	0.0626	0.0649	0.0637	0.0664	0.0674	0.3119	0.4894	0.6401	0.4782	0.3617	0.3748	0.8422	0.3989	0.8524	0.5310	0.4633	0.5652	0.3141	0.3015	0.4498	0.4113	0.3104	0.2647	0.4998	0.6653	0.7147	0.4514	0.5379	0.5114	0.4236	0.5025	0.8159	0.4532	0.5316	0.5380	0.2999	0.4185	0.5047	0.3932	0.3958	0.3117	0.1042	0.0778	0.0787	0.1072	0.0756	0.0790
34	34084	30.0	0.0671	0.0628	0.0647	0.0639	0.0667	0.0678	0.3303	0.4880	0.6539	0.4858	0.3716	0.3780	0.8631	0.4100	0.8922	0.5873	0.4959	0.5772	0.3377	0.3233	0.4791	0.4264	0.3275	0.2802	0.5100	0.6897	0.7092	0.4638	0.5017	0.4984	0.4231	0.5194	0.8762	0.4803	0.5429	0.5441	0.3148	0.4442	0.5451	0.4121	0.4106	0.3327	0.1035	0.0779	0.0799	0.1065	0.0736	0.0788
35	35117	30.0	0.0661	0.0628	0.0645	0.0646	0.0667	0.0670	0.3394	0.5101	0.6593	0.5010	0.3854	0.3685	0.9062	0.4388	0.8853	0.6089	0.4901	0.5790	0.3530	0.3307	0.4976	0.4488	0.3344	0.3124	0.5351	0.6860	0.6775	0.4554	0.4767	0.4916	0.4273	0.5511	0.9004	0.4935	0.5228	0.5302	0.3301	0.4652	0.5898	0.4300	0.4079	0.3574	0.1033	0.0770	0.0808	0.1084	0.0741	0.0777
36	36149	30.3	0.0660	0.0625	0.0643	0.0641	0.0668	0.0673	0.3492	0.4909	0.6626	0.5006	0.3820	0.3699	0.9091	0.4520	0.9137	0.6567	0.5228	0.6328	0.3738	0.3477	0.5136	0.4675	0.3513	0.3172	0.5210	0.6913	0.6941	0.4603	0.4842	0.5026	0.4544	0.6141	0.9050	0.5191	0.5684	0.5556	0.3521	0.4856	0.5890	0.4555	0.4360	0.3687	0.1058	0.0775	0.0799	0.1063	0.0742	0.0790
37	37182	30.0	0.0664	0.0630	0.0641	0.0642	0.0666	0.0675	0.3678	0.5583	0.7320	0.5306	0.4112	0.3949	1.0013	0.4752	1.0036	0.7403	0.5900	0.6766	0.3724	0.3703	0.5393	0.4872	0.3729	0.3519	0.5822	0.7671	0.7530	0.5076	0.4838	0.5402	0.4445	0.7343	1.0026	0.5395	0.5838	0.6290	0.3664	0.5106	0.6468	0.4712	0.4467	0.3913	0.1036	0.0783	0.0787	0.1064	0.0747	0.0779
38	38215	30.0	0.0661	0.0631	0.0642	0.0637	0.0665	0.0671	0.3717	0.5537	0.7418	0.5397	0.3954	0.4026	1.0148	0.5330	1.0137	0.7523	0.6912	0.6968	0.3930	0.3799	0.5576	0.5112	0.3750	0.3353	0.5799	0.7742	0.7669	0.5228	0.5446	0.5839	0.5189	0.7290	1.0080	0.5620	0.6018	0.6994	0.3905	0.5380	0.6414	0.4809	0.4749	0.4116	0.1043	0.0767	0.0792	0.1073	0.0757	0.0802
39	39248	30.0	0.0670	0.0629	0.0645	0.0640	0.0664	0.0669	0.3915	0.5551	0.7305	0.5374	0.4064	0.3852	0.9944	0.6042	0.9841	0.7592	0.6975	0.6890	0.4267	0.4002	0.5806	0.5345	0.3930	0.3469	0.5370	0.7402	0.7451	0.4753	0.5365	0.5373	0.4915	0.7579	1.0029	0.5954	0.6877	0.6812	0.4108	0.5649	0.6893	0.5007	0.4979	0.4365	0.1040	0.0785	0.0802	0.1072	0.0735	0.0788
40	40281	30.0	0.0660	0.0628	0.0642	0.0634	0.0669	0.0670	0.4103	0.5709	0.7660	0.5760	0.3993	0.4026	1.0351	0.6913	1.0268	0.8480	0.7723	0.7234	0.4625	0.4211	0.6740	0.5683	0.4244	0.3781	0.6058	0.7962	0.8072	0.5279	0.5731	0.5842	0.5119	0.8317	1.0495	0.7277	0.8336	0.7544	0.4338	0.5888	0.7782	0.5413	0.5291	0.4624	0.1036	0.0794	0.0797	0.1073	0.0740	0.0786
41	41314	30.2	0.0665	0.0632	0.0642	0.0635	0.0664	0.0682	0.4303	0.5742	0.8114	0.5864	0.4312	0.4219	1.0760	0.7591	1.0868	0.9152	0.8653	0.7886	0.4733	0.4433	0.6933	0.5852	0.4311	0.3752	0.6294	0.8479	0.8775	0.5587	0.6386	0.5920	0.5011	0.8714	1.0886	0.7742	0.9534	0.8323	0.4556	0.6098	0.7828	0.5510	0.5460	0.4813	0.1043	0.0784	0.0783	0.1074	0.0738	0.0794
42	42347	30.0	0.0664	0.0630	0.0640	0.0633	0.0666	0.0673	0.4320	0.6235	0.8074	0.6192	0.4414	0.4321	1.0761	0.7963	1.0871	0.9248	0.8574	0.7835	0.5015	0.4698	0.7281	0.6218	0.4559	0.4131	0.6351	0.8604	0.8441	0.5617	0.6051	0.6224	0.5370	0.9549	1.1121	0.8934	0.9888	0.8437	0.4836	0.6667	0.8772	0.5910	0.5790	0.5105	0.1035	0.0777	0.0786	0.1071	0.0741	0.0784
43	43379	30.0	0.0662	0.0631	0.0648	0.0637	0.0664	0.0669	0.4490	0.6117	0.8440	0.6167	0.4544	0.4437	1.0920	0.8261	1.0927	0.9475	0.8790	0.8082	0.5117	0.4879	0.7332	0.6309	0.4662	0.4164	0.6454	0.8595	0.8626	0.5457	0.6162	0.6302	0.5567	0.9357	1.0935	0.9133	1.0503	0.8785	0.5057	0.6595	0.8268	0.5851	0.5976	0.5224	0.1041	0.0773	0.0791	0.1063	0.0747	0.0787
44	44412	30.0	0.0666	0.0626	0.0648	0.0642	0.0668	0.0672	0.4792	0.6067	0.8671	0.6315	0.4556	0.4444	1.1101	0.8787	1.1400	1.0080	0.9266	0.8324	0.5438	0.5069	0.7542	0.6633	0.4979	0.4482	0.6508	0.8878	0.9104	0.5834	0.6495	0.6613	0.5854	1.0094	1.1672	0.9854	1.1111	0.9277	0.5227	0.7373	0.9360	0.6410	0.6253	0.5863	0.1038	0.0763	0.0794	0.1066	0.0752	0.0800
45	45445	30.2	0.0666	0.0631	0.0641	0.0640	0.0665	0.0678	0.4864	0.6299	0.8792	0.6663	0.4752	0.4464	1.1413	0.9485	1.1699	1.0861	0.9332	0.8349	0.5587	0.5380	0.7912	0.6915	0.5203	0.5238	0.7089	0.9301	0.9298	0.6194	0.6668	0.6192	0.6511	1.1011	1.2174	1.0081	1.1556	0.9206	0.5403	0.7994	1.0064	0.6767	0.6545	0.6180	0.1046	0.0775	0.0795	0.1089	0.0744	0.0786
46	46478	30.0	0.0663	0.0631	0.0643	0.0642	0.0664	0.0675	0.5103	0.6488	0.9044	0.6772	0.4774	0.4568	1.1542	0.9678	1.1749	1.1094	0.9706	0.8740	0.5944	0.5625	0.8231	0.7239	0.5520	0.5734	0.6888	0.9447	0.9468	0.6108	0.6940	0.6530	0.6899	1.0977	1.2353	1.0541	1.1896	0.9673	0.5656	0.8000	1.0455	0.7007	0.6849	0.7092	0.1041	0.0786	0.0792	0.1083	0.0756	0.0796
47	47511	30.0	0.0668	0.0635	0.0644	0.0636	0.0666	0.0670	0.5447	0.6579	0.9126	0.6714	0.5012	0.4672	1.1490	0.9815	1.1808	1.1013	0.9941	0.8725	0.6146	0.5901	0.8362	0.7355	0.5654	0.6373	0.6684	0.9389	0.9649	0.6083	0.7371	0.7135	0.6901	1.0968	1.2100	1.1014	1.2120	0.9784	0.5833	0.7849	1.0001	0.6968	0.7054	0.6917	0.1041	0.0779	0.0789	0.1062	0.0764	0.0785
48	48544	30.0	0.0669	0.0634	0.0645	0.0638	0.0668	0.0670	0.5663	0.6735	0.9221	0.7044	0.4934	0.4802	1.1755	1.0201	1.2400	1.1795	0.9973	0.8878	0.6550	0.6027	1.0153	0.7895	0.5957	0.7452	0.6866	0.9839	0.9601	0.6418	0.6787	0.6741	0.7735	1.2709	1.3355	1.1495	1.2496	0.9910	0.6221	0.8924	1.2168	0.7624	0.7734	0.9035	0.1037	0.0778	0.0793	0.1084	0.0745	0.0783
49	49577	30.0	0.0666	0.0624	0.0643	0.0643	0.0659	0.0678	0.5489	0.7027	0.9536	0.7312	0.5228	0.4844	1.2014	1.0779	1.2794	1.2213	1.0508	0.9477	0.6645	0.6354	1.0930	0.8393	0.6208	0.8132	0.7159	1.0157	1.0324	0.6961	0.7577	0.7298	0.8419	1.2938	1.3522	1.2223	1.2883	1.0456	0.6470	0.9419	1.2608	0.8068	0.8724	1.1301	0.1041	0.0779	0.0793	0.1077	0.0744	0.0779
50	50610	30.0	0.0671	0.0629	0.0647	0.0648	0.0663	0.0672	0.5881	0.7351	0.9690	0.7433	0.5326	0.5065	1.2152	1.0916	1.2888	1.2560	1.0473	0.9425	0.7055	0.6763	1.1641	0.8831	0.6396	0.8607	0.7530	1.0399	1.0283	0.6998	0.7535	0.7215	0.9084	1.3212	1.3764	1.2230	1.2942	1.0475	0.6800	0.9470	1.2736	0.8196	0.9050	1.1888	0.1034	0.0774	0.0796	0.1081	0.0737	0.0791
51	51643	29.9	0.0668	0.0635	0.0645	0.0636	0.0661	0.0668	0.6260	0.6955	0.9603	0.7339	0.5137	0.4816	1.2011	1.0884	1.2786	1.2558	1.0487	0.9178	0.7618	0.7064	1.1817	1.0512	0.6965	0.8509	0.7281	0.9758	0.9783	0.6685	0.7348	0.7402	0.9848	1.2726	1.3418	1.2233	1.2954	1.0380	0.6959	0.9549	1.2372	0.8135	0.9367	1.2333	0.1038	0.0784	0.0794	0.1075	0.0741	0.0781
52	52675	30.0	0.0659	0.0631	0.0641	0.0640	0.0665	0.0674	0.6745	0.7365	0.9884	0.7664	0.5617	0.5337	1.2527	1.1493	1.3371	1.3152	1.1075	0.9694	0.7825	0.6980	1.2464	1.1571	0.6980	0.8460	0.7781	1.0552	1.0569	0.7484	0.7910	0.7746	1.0171	1.3412	1.3735	1.2776	1.3536	1.0858	0.6954	0.9936	1.2743	0.8211	0.9490	1.2940	0.1043	0.0776	0.0792	0.1063	0.0738	0.0790
53	53708	30.0	0.0670	0.0630	0.0645	0.0640	0.0666	0.0676	0.6793	0.7625	1.0214	0.7864	0.5760	0.5324	1.2981	1.2018	1.3734	1.3637	1.1576	0.9810	0.9482	0.7457	1.3428	1.2499	0.7575	0.9796	0.7862	1.1119	1.0968	0.7919	0.8406	0.7828	1.1618	1.4188	1.4413	1.3560	1.4098	1.1066	0.8228	1.0999	1.4114	0.9074	1.0177	1.3443	0.1042	0.0772	0.0783	0.1074	0.0776	0.0785
54	54741	30.3	0.0664	0.0626	0.0647	0.0636	0.0664	0.0672	0.7000	0.8021	1.0447	0.8057	0.6044	0.5550	1.3131	1.2616	1.3928	1.3983	1.2043	1.0282	1.0661	0.7573	1.3899	1.3098	0.8742	1.0552	0.8627	1.1667	1.1589	0.8435	0.8833	0.7947	1.2415	1.4674	1.4700	1.4035	1.4366	1.1549	0.8917	1.2392	1.4763	0.9177	0.9834	1.3812	0.1041	0.0782	0.0795	0.1087	0.0736	0.0789
55	55774	30.2	0.0665	0.0629	0.0643	0.0641	0.0666	0.0673	0.7764	0.8076	1.0474	0.8102	0.5919	0.5737	1.3314	1.2605	1.3938	1.3975	1.2032	1.0237	1.2028	0.7982	1.3856	1.3471	0.9479	1.0614	0.8083	1.1797	1.1213	0.8078	0.8513	0.8189	1.2782	1.4455	1.4691	1.3855	1.4354	1.1389	0.8888	1.1931	1.4500	0.9369	1.0281	1.3882	0.1042	0.0775	0.0792	0.1082	0.0737	0.0783
56	56807	30.3	0.0664	0.0630	0.0649	0.0639	0.0673	0.0674	0.9782	0.8340	1.0735	0.8362	0.6322	0.5852	1.3614	1.3196	1.4213	1.4331	1.2544	1.0530	1.2680	0.9164	1.4395	1.4049	1.1076	1.1140	0.8681	1.2462	1.2075	0.8979	0.9256	0.8273	1.3500	1.5061	1.5173	1.4519	1.4783	1.1757	0.9384	1.2933	1.5017	0.9687	1.0550	1.4058	0.1041	0.0771	0.0788	0.1089	0.0753	0.0797
57	57840	30.0	0.0664	0.0628	0.0648	0.0639	0.0663	0.0672	0.8547	0.8283	1.0681	0.8256	0.6304	0.5606	1.3532	1.2953	1.3975	1.4038	1.2376	1.0356	1.2416	0.9068	1.3753	1.3617	1.0930	1.1058	0.7992	1.1939	1.1523	0.7850	0.8144	0.8071	1.2931	1.4289	1.4561	1.4053	1.4516	1.1665	0.8668	1.1526	1.4233	0.9209	1.0313	1.4052	0.1039	0.0780	0.0807	0.1071	0.0742	0.0784
58	58873	30.0	0.0660	0.0622	0.0643	0.0637	0.0662	0.0672	1.0246	0.8811	1.1068	0.8680	0.6512	0.5464	1.3840	1.3670	1.4332	1.4458	1.2841	1.1019	1.3176	1.1195	1.4470	1.4445	1.2308	1.1954	0.9204	1.2496	1.2404	0.9201	0.9613	0.9020	1.4090	1.5003	1.5099	1.4781	1.4949	1.2177	0.9990	1.3433	1.5007	1.0476	1.1788	1.4336	0.1043	0.0784	0.0795	0.1071	0.0741	0.0788
59	59906	30.2	0.0664	0.0633	0.0636	0.0641	0.0663	0.0671	1.1196	0.8675	1.1216	0.8915	0.6722	0.5639	1.4074	1.3955	1.4459	1.4593	1.3024	1.1271	1.3652	1.2037	1.4656	1.4814	1.2928	1.2282	0.9182	1.2805	1.2691	0.9092	0.9756	0.8831	1.4605	1.5287	1.5324	1.5003	1.5178	1.2553	1.0699	1.4363	1.5108	1.3009	1.2421	1.4567	0.1040	0.0775	0.0790	0.1095	0.0744	0.0788
60	60939	30.0	0.0670	0.0629	0.0651	0.0642	0.0665	0.0677	0.8265	0.8838	1.1274	0.9060	0.6890	0.5738	1.4105	1.4057	1.4444	1.4476	1.3173	1.1632	1.3831	1.2299	1.4540	1.4867	1.3138	1.2412	0.9572	1.2729	1.2668	0.9494	1.0154	0.9229	1.4565	1.5083	1.5177	1.5035	1.5229	1.2847	1.0671	1.4319	1.4963	1.3825	1.2803	1.4576	0.1040	0.0784	0.0797	0.1087	0.0740	0.0802
61	61972	30.0	0.0667	0.0634	0.0645	0.0637	0.0665	0.0672	0.8321	0.9192	1.1437	0.9422	0.7383	0.6157	1.4169	1.4126	1.4484	1.4446	1.3285	1.1798	1.3790	1.2545	1.4406	1.4954	1.3270	1.2540	0.9510	1.2644	1.2629	0.9259	1.0012	0.9326	1.4498	1.4958	1.5109	1.4937	1.5289	1.2946	1.0604	1.4147	1.4724	1.3773	1.2505	1.4577	0.1041	0.0782	0.0789	0.1066	0.0775	0.0789
62	63005	29.8	0.0672	0.0632	0.0649	0.0641	0.0668	0.0677	0.8622	0.9370	1.1668	0.9546	0.7318	0.5938	1.4360	1.4381	1.4508	1.4634	1.3420	1.1971	1.4225	1.3081	1.4567	1.5095	1.3529	1.2726	0.9800	1.2951	1.2784	0.9568	1.0296	0.9390	1.4777	1.5200	1.5290	1.5151	1.5409	1.3191	1.1266	1.4558	1.4885	1.4381	1.2875	1.4745	0.1039	0.0772	0.0794	0.1067	0.0743	0.0780
63	64037	30.0	0.0671	0.0630	0.0640	0.0635	0.0664	0.0671	0.9143	0.9401	1.1912	0.9631	0.7294	0.6145	1.4543	1.4604	1.4761	1.4705	1.3596	1.2144	1.4581	1.3625	1.4736	1.5232	1.3687	1.2927	0.9847	1.3107	1.3044	0.9996	1.0549	0.9359	1.4972	1.5433	1.5479	1.5297	1.5606	1.3308	1.1389	1.4871	1.5139	1.4764	1.3358	1.4843	0.1044	0.0770	0.0789	0.1079	0.0747	0.0787
64	65070	30.2	0.0667	0.0631	0.0645	0.0643	0.0663	0.0673	1.0826	0.9758	1.2286	1.0009	0.8044	0.6157	1.4706	1.4781	1.4812	1.4885	1.3772	1.2407	1.5089	1.4061	1.4878	1.5330	1.3981	1.3077	1.0416	1.3134	1.3264	1.0685	1.1199	0.9808	1.5307	1.5628	1.5704	1.5434	1.5833	1.3587	1.2698	1.5233	1.5388	1.5220	1.4320	1.4964	0.1041	0.0768	0.0787	0.1080	0.0746	0.0795
65	66103	30.3	0.0665	0.0629	0.0643	0.0641	0.0667	0.0679	0.9203	0.9770	1.2355	0.9957	0.7739	0.6156	1.4728	1.4804	1.4799	1.4765	1.3832	1.2595	1.5227	1.3987	1.4725	1.5349	1.3891	1.3063	1.0200	1.3079	1.3276	0.9758	1.1223	0.9789	1.5368	1.5555	1.5605	1.5402	1.5899	1.3597	1.2167	1.5065	1.5197	1.5026	1.4164	1.5019	0.1046	0.0770	0.0790	0.1089	0.0747	0.0811
66	67135	30.0	0.0666	0.0626	0.0644	0.0638	0.0667	0.0677	1.1383	0.9892	1.2447	1.0286	0.8443	0.6618	1.4870	1.4881	1.4828	1.4873	1.3959	1.2838	1.5550	1.4374	1.4829	1.5425	1.3954	1.3283	1.0668	1.3170	1.3397	1.0331	1.1735	1.0249	1.5552	1.5572	1.5633	1.5526	1.6168	1.3799	1.3636	1.5123	1.5269	1.5154	1.5241	1.5115	0.1043	0.0780	0.0790	0.1090	0.0741	0.0801
67	68168	30.0	0.0667	0.0628	0.0651	0.0638	0.0670	0.0671	0.9741	0.9926	1.2497	1.0489	0.8174	0.6735	1.4852	1.4822	1.4771	1.4732	1.3969	1.2843	1.5490	1.4109	1.4648	1.5240	1.3674	1.3165	1.0428	1.3097	1.3226	1.0060	1.1532	1.0093	1.5329	1.5489	1.5516	1.5352	1.6143	1.3798	1.3919	1.4926	1.5041	1.4731	1.5202	1.5154	0.1039	0.0780	0.0813	0.1081	0.0749	0.0786
68	69201	30.0	0.0671	0.0629	0.0645	0.0639	0.0668	0.0675	1.1822	1.0052	1.2744	1.0571	0.8628	0.6858	1.5117	1.5065	1.4951	1.5022	1.4192	1.3078	1.5875	1.4588	1.4927	1.5517	1.4042	1.3496	1.0831	1.3514	1.3584	1.1186	1.2428	1.0437	1.5721	1.5791	1.5802	1.5645	1.6621	1.3991	1.5171	1.5278	1.5382	1.5207	1.6163	1.5338	0.1045	0.0774	0.0788	0.1065	0.0736	0.0803
69	70234	30.3	0.0670	0.0627	0.0645	0.0642	0.0676	0.0674	1.1285	1.0529	1.2989	1.0820	0.9330	0.7233	1.5173	1.5163	1.5081	1.5160	1.4313	1.3253	1.6005	1.4856	1.5058	1.5600	1.4179	1.3605	1.1323	1.3649	1.3728	1.1882	1.2419	1.0534	1.5861	1.6004	1.6028	1.5772	1.6888	1.4069	1.5603	1.5625	1.5589	1.5469	1.6654	1.5332	0.1039	0.0775	0.0797	0.1075	0.0743	0.0791
70	71267	29.8	0.0668	0.0630	0.0648	0.0636	0.0671	0.0677	1.1178	1.0405	1.3095	1.0775	0.9035	0.7460	1.5187	1.4950	1.4885	1.4890	1.4185	1.3369	1.5885	1.4348	1.4665	1.5283	1.3772	1.3597	1.1126	1.3331	1.3595	1.1515	1.2646	1.0594	1.5510	1.5506	1.5577	1.5354	1.6827	1.4182	1.5019	1.4681	1.5046	1.4795	1.6458	1.5406	0.1041	0.0773	0.0796	0.1081	0.0741	0.0794
71	72300	30.0	0.0670	0.0633	0.0650	0.0639	0.0671	0.0678	1.0922	1.0656	1.3202	1.1103	0.9587	0.7652	1.5290	1.5107	1.4999	1.5093	1.4409	1.3531	1.6023	1.4727	1.4938	1.5465	1.3998	1.3660	1.1321	1.3544	1.3719	1.1891	1.3396	1.0822	1.5796	1.5825	1.5907	1.5651	1.7156	1.4254	1.5516	1.5369	1.5407	1.5233	1.7043	1.5423	0.1043	0.0783	0.0787	0.1082	0.0784	0.0783
72	73333	30.0	0.0667	0.0632	0.0646	0.0640	0.0669	0.0670	1.1945	1.0852	1.3351	1.1617	0.9540	0.8172	1.5344	1.5051	1.5008	1.5048	1.4348	1.3715	1.5998	1.4575	1.4789	1.5404	1.3821	1.3693	1.0880	1.3304	1.3483	1.1591	1.3570	1.0850	1.5669	1.5560	1.5743	1.5537	1.7185	1.4385	1.5244	1.4866	1.4986	1.4852	1.7103	1.5545	0.1038	0.0775	0.0802	0.1094	0.0754	0.0803
73	74366	30.0	0.0668	0.0627	0.0646	0.0644	0.0665	0.0681	1.1581	1.0909	1.3457	1.1496	0.9910	0.8241	1.5488	1.5320	1.5162	1.5235	1.4575	1.3894	1.6176	1.4998	1.5085	1.5574	1.4147	1.3940	1.1607	1.3806	1.3996	1.2388	1.4894	1.1096	1.6002	1.5959	1.6047	1.5811	1.7644	1.4524	1.5949	1.5694	1.5625	1.5492	1.7608	1.5648	0.1034	0.0785	0.0795	0.1066	0.0740	0.0796
74	75399	30.0	0.0670	0.0629	0.0641	0.0636	0.0672	0.0673	1.1921	1.0989	1.3697	1.2025	1.0218	0.8607	1.5601	1.5425	1.5322	1.5433	1.4678	1.4055	1.6280	1.5241	1.5285	1.5710	1.4277	1.4010	1.1919	1.3904	1.4124	1.2570	1.5285	1.1263	1.6183	1.6240	1.6307	1.6017	1.7882	1.4655	1.6218	1.6008	1.5838	1.5716	1.7886	1.5737	0.1043	0.0775	0.0810	0.1079	0.0740	0.0777
75	76432	29.9	0.0668	0.0629	0.0647	0.0643	0.0661	0.0678	1.1913	1.1541	1.3951	1.2164	1.0885	0.8870	1.5752	1.5672	1.5591	1.5666	1.4889	1.4330	1.6441	1.5475	1.5484	1.5893	1.4505	1.4262	1.2783	1.4240	1.4419	1.2956	1.5993	1.1480	1.6394	1.6347	1.6389	1.6219	1.8285	1.4858	1.6449	1.6161	1.6030	1.5965	1.8214	1.5973	0.1053	0.0773	0.0791	0.1069	0.0742	0.0807
76	77465	29.9	0.0665	0.0627	0.0648	0.0641	0.0669	0.0679	1.1634	1.1715	1.4109	1.2380	1.0915	0.9455	1.5802	1.5708	1.5587	1.5710	1.4965	1.4521	1.6465	1.5474	1.5481	1.5939	1.4514	1.4373	1.3016	1.4302	1.4529	1.3113	1.6530	1.1663	1.6402	1.6423	1.6499	1.6255	1.8478	1.5028	1.6500	1.6165	1.5996	1.6040	1.8400	1.5969	0.1043	0.0766	0.0793	0.1098	0.0750	0.0796
77	78498	30.2	0.0669	0.0630	0.0645	0.0645	0.0664	0.0681	1.3732	1.1904	1.4299	1.2521	1.1072	0.9564	1.5918	1.5835	1.5718	1.5818	1.5129	1.4625	1.6564	1.5630	1.5612	1.6017	1.4610	1.4467	1.3118	1.4470	1.4658	1.3335	1.6828	1.1765	1.6542	1.6569	1.6570	1.6395	1.8785	1.5085	1.6629	1.6345	1.6164	1.6099	1.8749	1.6107	0.1042	0.0779	0.0788	0.1080	0.0766	0.0786
78	79531	29.9	0.0668	0.0632	0.0648	0.0645	0.0663	0.0677	1.2502	1.1857	1.4371	1.2521	1.1190	0.9670	1.5916	1.5680	1.5558	1.5629	1.5031	1.4648	1.6394	1.5333	1.5372	1.5843	1.4416	1.4375	1.3045	1.4249	1.4437	1.3061	1.6954	1.1710	1.6308	1.6296	1.6376	1.6124	1.8783	1.5122	1.6387	1.5986	1.5871	1.5828	1.8833	1.6064	0.1042	0.0785	0.0788	0.1075	0.0743	0.0793
79	80564	30.3	0.0666	0.0628	0.0645	0.0638	0.0667	0.0682	1.1782	1.2320	1.4416	1.2937	1.1825	1.0236	1.6012	1.5858	1.5714	1.5855	1.5147	1.4857	1.6492	1.5597	1.5586	1.5973	1.4523	1.4541	1.3368	1.4375	1.4673	1.3369	1.7247	1.2072	1.6466	1.6538	1.6589	1.6332	1.9083	1.5313	1.6560	1.6389	1.6160	1.6144	1.9094	1.6148	0.1039	0.0771	0.0792	0.1079	0.0756	0.0801
80	81597	30.0	0.0665	0.0630	0.0645	0.0641	0.0668	0.0679	1.1995	1.2498	1.4609	1.2997	1.1862	1.0353	1.6084	1.5894	1.5762	1.5849	1.5252	1.4951	1.6552	1.5578	1.5533	1.5962	1.4540	1.4590	1.3394	1.4555	1.4718	1.3378	1.7476	1.2155	1.6491	1.6487	1.6522	1.6283	1.9175	1.5348	1.6580	1.6206	1.6030	1.5984	1.9279	1.6299	0.1041	0.0778	0.0792	0.1069	0.0757	0.0793
81	82630	30.2	0.0671	0.0624	0.0647	0.0637	0.0668	0.0679	1.2208	1.2457	1.4611	1.3061	1.1769	1.0536	1.6101	1.5631	1.5536	1.5640	1.5164	1.4970	1.6390	1.5195	1.5233	1.5757	1.4295	1.4516	1.3249	1.4244	1.4448	1.3118	1.7669	1.2214	1.6207	1.6080	1.6204	1.6025	1.9127	1.5330	1.6256	1.5756	1.5697	1.5674	1.9172	1.6145	0.1039	0.0784	0.0791	0.1089	0.0749	0.0790
82	83663	29.9	0.0664	0.0631	0.0638	0.0645	0.0666	0.0681	1.2771	1.2762	1.4901	1.3341	1.2127	1.0878	1.6213	1.5860	1.5808	1.5885	1.5347	1.5135	1.6509	1.5497	1.5468	1.5882	1.4553	1.4706	1.3497	1.4507	1.4755	1.3493	1.7975	1.2437	1.6431	1.6378	1.6440	1.6319	1.9429	1.5564	1.6539	1.6157	1.6013	1.5977	1.9378	1.6394	0.1049	0.0778	0.0800	0.1060	0.0752	0.0802
83	84696	30.0	0.0670	0.0629	0.0645	0.0643	0.0666	0.0678	1.4803	1.2942	1.4971	1.3259	1.2164	1.0749	1.6273	1.5928	1.5835	1.5934	1.5389	1.5243	1.6515	1.5555	1.5557	1.5935	1.4562	1.4715	1.3489	1.4544	1.4737	1.3594	1.8179	1.2485	1.6524	1.6502	1.6561	1.6403	1.9627	1.5581	1.6667	1.6355	1.6134	1.6144	1.9510	1.6451	0.1039	0.0788	0.0795	0.1067	0.0742	0.0795
84	85728	30.0	0.0671	0.0627	0.0644	0.0636	0.0663	0.0672	1.5299	1.3098	1.5107	1.3612	1.2504	1.1285	1.6327	1.6032	1.5993	1.6093	1.5485	1.5376	1.6551	1.5711	1.5699	1.6038	1.4615	1.4792	1.3597	1.4674	1.4904	1.3768	1.8442	1.2685	1.6566	1.6669	1.6728	1.6508	1.9836	1.5731	1.6746	1.6534	1.6312	1.6269	1.9682	1.6515	0.1034	0.0774	0.0805	0.1069	0.0762	0.0787
85	86761	30.0	0.0666	0.0624	0.0645	0.0639	0.0669	0.0677	1.5449	1.3319	1.5331	1.3852	1.2780	1.1583	1.6412	1.6123	1.6046	1.6136	1.5543	1.5443	1.6614	1.5726	1.5695	1.6067	1.4653	1.4881	1.3782	1.4828	1.4970	1.3823	1.8695	1.2862	1.6653	1.6701	1.6742	1.6488	1.9925	1.5840	1.6790	1.6463	1.6220	1.6206	1.9765	1.6601	0.1047	0.0772	0.0795	0.1068	0.0749	0.0813
86	87794	30.2	0.0671	0.0626	0.0643	0.0641	0.0667	0.0678	1.5278	1.3435	1.5414	1.3841	1.2729	1.1649	1.6446	1.6105	1.6029	1.6132	1.5593	1.5537	1.6585	1.5722	1.5686	1.5994	1.4622	1.4908	1.3780	1.4731	1.4911	1.3869	1.8907	1.2916	1.6672	1.6672	1.6669	1.6519	2.0068	1.5855	1.6806	1.6496	1.6255	1.6254	1.9935	1.6629	0.1039	0.0783	0.0799	0.1076	0.0738	0.0784
87	88827	29.8	0.0665	0.0630	0.0646	0.0639	0.0670	0.0676	1.4715	1.3669	1.5706	1.4110	1.3049	1.2056	1.6569	1.6283	1.6247	1.6340	1.5783	1.5727	1.6712	1.5898	1.5852	1.6190	1.4800	1.5038	1.4075	1.5093	1.5234	1.4186	1.9162	1.3150	1.6806	1.6894	1.6838	1.6708	2.0295	1.6104	1.6972	1.6737	1.6438	1.6442	2.0141	1.6803	0.1037	0.0776	0.0808	0.1079	0.0759	0.0779
88	89860	30.2	0.0667	0.0631	0.0646	0.0638	0.0669	0.0677	1.5440	1.3580	1.5711	1.3968	1.2809	1.1516	1.6593	1.6152	1.6088	1.6164	1.5700	1.5722	1.6586	1.5600	1.5640	1.6018	1.4618	1.4953	1.3904	1.4739	1.4972	1.3965	1.9322	1.3225	1.6605	1.6686	1.6611	1.6475	2.0336	1.6054	1.6793	1.6452	1.6205	1.6246	2.0177	1.6744	0.1037	0.0774	0.0800	0.1078	0.0748	0.0788
89	90893	30.2	0.0668	0.0635	0.0646	0.0646	0.0669	0.0681	1.5765	1.3793	1.5893	1.4229	1.3057	1.2233	1.6625	1.6216	1.6186	1.6318	1.5805	1.5802	1.6623	1.5741	1.5743	1.6132	1.4745	1.5149	1.4082	1.4964	1.5198	1.4157	1.9532	1.3357	1.6741	1.6792	1.6792	1.6678	2.0517	1.6226	1.6899	1.6516	1.6299	1.6379	2.0340	1.6846	0.1041	0.0773	0.0790	0.1088	0.0744	0.0791
90	91926	30.0	0.0667	0.0629	0.0647	0.0643	0.0666	0.0677	1.4613	1.4093	1.5944	1.4323	1.3253	1.2214	1.6651	1.6245	1.6219	1.6340	1.5825	1.5908	1.6657	1.5792	1.5790	1.6073	1.4722	1.5153	1.4001	1.5022	1.5089	1.4045	1.9600	1.3463	1.6728	1.6808	1.6825	1.6647	2.0662	1.6212	1.6966	1.6623	1.6370	1.6393	2.0470	1.6830	0.1036	0.0776	0.0787	0.1083	0.0745	0.0787
91	92959	30.0	0.0666	0.0631	0.0644	0.0644	0.0666	0.0678	1.5877	1.4153	1.6160	1.4584	1.3521	1.2554	1.6770	1.6497	1.6440	1.6555	1.6058	1.6051	1.6809	1.6047	1.6011	1.6295	1.4980	1.5330	1.4356	1.5408	1.5497	1.4585	1.9750	1.3682	1.7018	1.7107	1.7082	1.6913	2.0945	1.6391	1.7250	1.6898	1.6632	1.6738	2.0755	1.6997	0.1035	0.0768	0.0787	0.1083	0.0778	0.0792
92	93992	30.0	0.0670	0.0630	0.0644	0.0639	0.0666	0.0681	1.5902	1.4318	1.6241	1.4616	1.3588	1.2721	1.6805	1.6508	1.6439	1.6561	1.6118	1.6118	1.6784	1.6065	1.6017	1.6289	1.4976	1.5316	1.4277	1.5370	1.5424	1.4538	1.9811	1.3719	1.7002	1.7093	1.7044	1.6889	2.1062	1.6406	1.7284	1.6944	1.6660	1.6752	2.0887	1.7003	0.1042	0.0774	0.0783	0.1070	0.0750	0.0812
93	95025	30.3	0.0669	0.0626	0.0643	0.0643	0.0672	0.0680	1.5862	1.4341	1.6241	1.4667	1.3692	1.2672	1.6755	1.6443	1.6374	1.6489	1.6055	1.6131	1.6693	1.5972	1.5959	1.6176	1.4818	1.5266	1.4112	1.5168	1.5294	1.4381	1.9877	1.3888	1.6961	1.7071	1.7001	1.6863	2.1129	1.6447	1.7230	1.6947	1.6614	1.6715	2.0977	1.7054	0.1031	0.0789	0.0791	0.1068	0.0737	0.0788
94	96058	30.0	0.0670	0.0628	0.0643	0.0639	0.0666	0.0682	1.5709	1.4440	1.6315	1.4764	1.3679	1.3188	1.6788	1.6351	1.6334	1.6467	1.6019	1.6193	1.6615	1.5805	1.5814	1.6097	1.4774	1.5279	1.4137	1.5058	1.5180	1.4250	1.9960	1.4040	1.6777	1.6894	1.6868	1.6726	2.1121	1.6538	1.7092	1.6741	1.6451	1.6564	2.1028	1.7078	0.1037	0.0770	0.0804	0.1081	0.0741	0.0785
95	97091	30.0	0.0669	0.0637	0.0644	0.0640	0.0666	0.0676	1.6109	1.4672	1.6410	1.4921	1.3941	1.3209	1.6861	1.6426	1.6402	1.6583	1.6096	1.6228	1.6684	1.5872	1.5881	1.6147	1.4824	1.5347	1.4299	1.5147	1.5287	1.4376	2.0092	1.4259	1.6923	1.6939	1.6931	1.6869	2.1273	1.6561	1.7086	1.6735	1.6516	1.6552	2.1179	1.7070	0.1038	0.0778	0.0798	0.1085	0.0734	0.0794
96	98124	30.0	0.0667	0.0627	0.0649	0.0645	0.0668	0.0683	1.6285	1.4832	1.6556	1.5147	1.4202	1.3315	1.6938	1.6659	1.6605	1.6761	1.6323	1.6391	1.6864	1.6226	1.6176	1.6352	1.5105	1.5536	1.4551	1.5621	1.5649	1.4889	2.0228	1.4394	1.7179	1.7272	1.7253	1.7079	2.1442	1.6740	1.7453	1.7178	1.6873	1.6940	2.1456	1.7257	0.1044	0.0780	0.0797	0.1061	0.0738	0.0798
97	99157	30.0	0.0672	0.0630	0.0641	0.0643	0.0673	0.0679	1.6195	1.4849	1.6511	1.5162	1.4156	1.3490	1.6841	1.6432	1.6380	1.6558	1.6140	1.6330	1.6607	1.5826	1.5823	1.6090	1.4712	1.5364	1.4296	1.5068	1.5272	1.4333	2.0229	1.4523	1.6872	1.6953	1.6878	1.6816	2.1318	1.6696	1.7029	1.6625	1.6343	1.6416	2.1302	1.7186	0.1036	0.0779	0.0799	0.1087	0.0741	0.0785
98	100190	30.0	0.0673	0.0628	0.0640	0.0644	0.0667	0.0679	1.5631	1.4951	1.6614	1.5177	1.4234	1.3220	1.6955	1.6548	1.6536	1.6716	1.6259	1.6450	1.6716	1.5954	1.5981	1.6244	1.4936	1.5507	1.4424	1.5341	1.5463	1.4589	2.0333	1.4622	1.6993	1.7110	1.7016	1.6968	2.1491	1.6849	1.7259	1.6911	1.6612	1.6708	2.1524	1.7299	0.1037	0.0776	0.0795	0.1076	0.0739	0.0787
99	101223	30.2	0.0671	0.0627	0.0642	0.0637	0.0670	0.0678	1.5663	1.5030	1.6662	1.5255	1.4320	1.3463	1.6996	1.6565	1.6517	1.6684	1.6271	1.6510	1.6690	1.5912	1.5900	1.6188	1.4864	1.5529	1.4440	1.5225	1.5397	1.4522	2.0402	1.4749	1.6979	1.7001	1.6925	1.6904	2.1537	1.6841	1.7176	1.6783	1.6493	1.6622	2.1574	1.7351	0.1037	0.0788	0.0794	0.1063	0.0749	0.0791
100	102256	30.0	0.0670	0.0631	0.0646	0.0639	0.0669	0.0675	1.5037	1.5207	1.6735	1.5494	1.4579	1.3836	1.7020	1.6594	1.6579	1.6767	1.6364	1.6573	1.6707	1.5959	1.5970	1.6226	1.4934	1.5592	1.4512	1.5391	1.5488	1.4603	2.0502	1.4903	1.7021	1.7104	1.7011	1.6988	2.1635	1.6902	1.7272	1.6822	1.6551	1.6706	2.1693	1.7316	0.1041	0.0779	0.0788	0.1072	0.0777	0.0805
